,threshold,alpha (1/s),D (median)
0,0.9,0.002,0.0001
1,0.91,0.002,0.0001
2,0.92,0.002,0.0001
3,0.93,0.002,0.0002
4,0.94,0.002,0.0004
5,0.95,0.002,0.0006
6,0.96,0.002,0.0008
7,0.97,0.002,0.001
8,0.98,0.002,0.0012
9,0.99,0.002,0.0014
10,0.991,0.002,0.0014
11,0.992,0.002,0.0014
12,0.993,0.002,0.0014
13,0.994,0.002,0.0014
14,0.995,0.002,0.0014
15,0.996,0.002,0.0014
16,0.997,0.002,0.0014
17,0.998,0.002,0.0014
18,0.999,0.002,0.0014
